MicroMag 2900/3900 Data File (Series 0016.002)
Remanence curves:  IRM + DCD

INSTRUMENT
Configuration                   VSM
Temperature control             None
Hardware version                0004
Software version                03/06/2013
Units of measure                Hybrid SI
Temperature in                  Kelvin

SAMPLE
Mass                            N/A
Volume                          N/A
Demagnetizing factor            N/A

SETTINGS
Field range                     N/A
Field (command)                 N/A
Moment range                   +20.00000E-06
Averaging time                 +150.0000E-03
Temperature (command)           N/A
Tmprtr difference correction    No
Orientation                     0.000000E+00
Vibration amplitude             0.2
Calibration factor             +3.972066E+00
Operating frequency            +83.00000E+00

MEASUREMENT
Description                    ""
Field (measured)                N/A
Temperature (measured)          N/A
Averages (completed)            N/A
Measured on                     01/03/2020  16:11
Elapsed time                   +882.2133E+00

PROCESSING
Background subtraction          No
Delta-m processing              No
Demagnetizing factor            No
Normalization                   No
Normalization factor            N/A
Offset (field)                  No
Offset (moment)                 No
Pole saturation                 No
Slope correction                No

VIEWPORT
Left                           -500.0000E-03
Right                          +500.0000E-03
Bottom                         -20.00000E-06
Top                            +20.00000E-06
Show X-axis?                    Yes
Show Y-axis?                    Yes

CHARACTERIZATION
Initial slope                   N/A
Saturation                      N/A
Remanence                      +15.45951E-06
Coercivity (direct)             N/A
Coercivity (remanent)          +54.98128E-03
S* (direct)                     N/A
S* (DCD)                       +135.4311E-03

SCRIPT
Include IRM?                    Yes
Include DCD?                    Yes
Include direct moment?          No
Demagnetize before measuring?   Yes
Field sequence                  Nonlinear
Initial (non-zero) field       +100.0000E-06
Final field                    +500.0000E-03
Number of points/curve          100
Pause at applied field         +100.0000E-03
Slew rate to applied field     +1.000000E+00
Averaging time                 +150.0000E-03
Saturating field               +1.000000E+00
Pause at saturating field      +100.0000E-03
Saturating field applied        Only once
Slew rate to saturating field  +999.9999E-03
Pause at zero field            +100.0000E-03
Slew rate to zero field        +999.9999E-03
Number of segments              2
Number of data                  200

Segment   Averaging      Initial        Field         Final                    Final 
 Number      Time         Field       Increment       Field         Pause      Index 
             (s)           (T)           (T)           (T)           (s)     
0000001,+150.0000E-03, 0.000000E+00,+100.0000E-06,+500.0000E-03,+100.0000E-03,0000100
0000002,+150.0000E-03, 0.000000E+00,+100.0000E-06,-500.0000E-03,+100.0000E-03,0000200

                           
    Field       Remanence  
     (T)          (Am²)    
+552.4642E-09,-111.6664E-09
+101.2126E-06,-117.1413E-09
+209.9298E-06,-112.0033E-09
+323.2978E-06,-113.3933E-09
+443.1495E-06,-59.04505E-09
+571.4103E-06,-110.2906E-09
+706.7871E-06,-130.1569E-09
+849.6672E-06,-148.2964E-09
+1.001384E-03,-136.6705E-09
+1.162025E-03,-145.5792E-09
+1.333038E-03,-143.1648E-09
+1.512798E-03,-94.02924E-09
+1.704865E-03,-65.10049E-09
+1.907388E-03,-113.1327E-09
+2.121149E-03,-127.5389E-09
+2.348516E-03,-93.75063E-09
+2.588658E-03,-104.4412E-09
+2.842313E-03,-112.2862E-09
+3.119212E-03,-92.14448E-09
+3.402732E-03,-102.4867E-09
+3.710147E-03,-106.8310E-09
+4.028139E-03,-80.29047E-09
+4.370394E-03,-110.1140E-09
+4.728168E-03,-101.4386E-09
+5.110617E-03,-99.61765E-09
+5.512746E-03,-90.80834E-09
+5.945303E-03,-84.97798E-09
+6.396648E-03,-42.80765E-09
+6.877948E-03,-69.50237E-09
+7.384998E-03,-64.28736E-09
+7.925865E-03,-56.51040E-09
+8.496998E-03,-78.02660E-09
+9.097247E-03,-63.57003E-09
+9.737743E-03,-42.97924E-09
+10.40825E-03,-23.83836E-09
+11.12255E-03,-29.12207E-09
+11.89627E-03,+13.62632E-09
+12.69968E-03,+25.74209E-09
+13.54889E-03,+34.80796E-09
+14.45675E-03,+81.38155E-09
+15.40947E-03,+98.97492E-09
+16.42176E-03,+128.3510E-09
+17.49428E-03,+164.2186E-09
+18.63962E-03,+215.6998E-09
+19.82978E-03,+256.0838E-09
+21.11083E-03,+323.2014E-09
+22.46435E-03,+394.0864E-09
+23.89356E-03,+503.7761E-09
+25.41158E-03,+624.6337E-09
+27.01782E-03,+754.3701E-09
+28.71484E-03,+926.0161E-09
+30.57713E-03,+1.099989E-06
+32.46954E-03,+1.282863E-06
+34.50669E-03,+1.552305E-06
+36.64464E-03,+1.856793E-06
+38.93010E-03,+2.178582E-06
+41.31537E-03,+2.544725E-06
+43.89705E-03,+2.975645E-06
+46.58468E-03,+3.429092E-06
+49.46661E-03,+3.928435E-06
+52.45174E-03,+4.480204E-06
+55.68204E-03,+5.044703E-06
+59.06118E-03,+5.656138E-06
+62.68548E-03,+6.292698E-06
+66.46416E-03,+6.945329E-06
+70.54348E-03,+7.634637E-06
+74.81442E-03,+8.284776E-06
+79.33830E-03,+8.950066E-06
+84.10831E-03,+9.562505E-06
+89.22107E-03,+10.20324E-06
+94.58850E-03,+10.78713E-06
+100.2533E-03,+11.32376E-06
+106.3077E-03,+11.82139E-06
+112.7008E-03,+12.29889E-06
+119.3966E-03,+12.73159E-06
+126.5502E-03,+13.10817E-06
+134.1453E-03,+13.43064E-06
+142.1862E-03,+13.74766E-06
+150.8162E-03,+14.01639E-06
+159.7511E-03,+14.25324E-06
+169.2820E-03,+14.43683E-06
+179.4057E-03,+14.60832E-06
+190.1161E-03,+14.74979E-06
+201.4192E-03,+14.86765E-06
+213.4750E-03,+14.98692E-06
+226.2594E-03,+15.06065E-06
+239.6474E-03,+15.13008E-06
+253.9299E-03,+15.18889E-06
+269.0826E-03,+15.24136E-06
+284.9857E-03,+15.30327E-06
+302.0793E-03,+15.31058E-06
+319.9890E-03,+15.35900E-06
+338.7804E-03,+15.38974E-06
+359.0769E-03,+15.40110E-06
+380.3518E-03,+15.41087E-06
+402.5826E-03,+15.41156E-06
+426.8177E-03,+15.43073E-06
+452.0605E-03,+15.46577E-06
+478.7411E-03,+15.44282E-06
+507.4296E-03,+15.45299E-06

-4.464227E-06,+15.45951E-06
-100.5166E-06,+15.44113E-06
-209.6166E-06,+15.42981E-06
-323.3048E-06,+15.42499E-06
-443.5861E-06,+15.39059E-06
-571.6441E-06,+15.38109E-06
-706.9599E-06,+15.34731E-06
-849.9910E-06,+15.33564E-06
-1.001801E-03,+15.30162E-06
-1.162618E-03,+15.30282E-06
-1.333710E-03,+15.25643E-06
-1.513716E-03,+15.23680E-06
-1.705463E-03,+15.19383E-06
-1.907854E-03,+15.16710E-06
-2.121838E-03,+15.13575E-06
-2.349618E-03,+15.10461E-06
-2.588972E-03,+15.05683E-06
-2.842756E-03,+15.00392E-06
-3.119111E-03,+14.96002E-06
-3.402824E-03,+14.92103E-06
-3.710331E-03,+14.87208E-06
-4.027644E-03,+14.81285E-06
-4.370345E-03,+14.74762E-06
-4.728577E-03,+14.69288E-06
-5.110691E-03,+14.61556E-06
-5.513357E-03,+14.53938E-06
-5.945523E-03,+14.47484E-06
-6.397136E-03,+14.36762E-06
-6.878563E-03,+14.28508E-06
-7.385300E-03,+14.19318E-06
-7.926482E-03,+14.09182E-06
-8.497883E-03,+13.97035E-06
-9.098077E-03,+13.84807E-06
-9.738464E-03,+13.71877E-06
-10.40543E-03,+13.58726E-06
-11.12044E-03,+13.42064E-06
-11.89380E-03,+13.25704E-06
-12.69724E-03,+13.08467E-06
-13.54580E-03,+12.87987E-06
-14.45469E-03,+12.68338E-06
-15.40703E-03,+12.46371E-06
-16.41995E-03,+12.21337E-06
-17.49175E-03,+11.96025E-06
-18.63753E-03,+11.65615E-06
-19.82782E-03,+11.36906E-06
-21.10910E-03,+11.02650E-06
-22.46314E-03,+10.66325E-06
-23.89237E-03,+10.26260E-06
-25.41048E-03,+9.793168E-06
-27.01673E-03,+9.319914E-06
-28.71417E-03,+8.824266E-06
-30.56699E-03,+8.259266E-06
-32.45956E-03,+7.656611E-06
-34.49537E-03,+6.989624E-06
-36.63403E-03,+6.271604E-06
-38.91965E-03,+5.500544E-06
-41.30201E-03,+4.677278E-06
-43.88718E-03,+3.783833E-06
-46.57380E-03,+2.844580E-06
-49.45772E-03,+1.861181E-06
-52.44074E-03,+841.4713E-09
-55.67249E-03,-228.9431E-09
-59.05205E-03,-1.286610E-06
-62.67936E-03,-2.393441E-06
-66.45274E-03,-3.470896E-06
-70.53085E-03,-4.565451E-06
-74.80220E-03,-5.612633E-06
-79.32754E-03,-6.617155E-06
-84.09622E-03,-7.551371E-06
-89.21216E-03,-8.466259E-06
-94.57451E-03,-9.314620E-06
-100.2394E-03,-10.09353E-06
-106.2651E-03,-10.78878E-06
-112.6639E-03,-11.45250E-06
-119.3490E-03,-12.02603E-06
-126.5014E-03,-12.54782E-06
-134.1042E-03,-13.01043E-06
-142.1407E-03,-13.40673E-06
-150.7790E-03,-13.75318E-06
-159.7100E-03,-14.06420E-06
-169.2370E-03,-14.29059E-06
-179.3639E-03,-14.52158E-06
-190.0779E-03,-14.69119E-06
-201.3765E-03,-14.86668E-06
-213.4368E-03,-14.97352E-06
-226.2253E-03,-15.08881E-06
-239.6172E-03,-15.17567E-06
-253.8933E-03,-15.23944E-06
-269.0490E-03,-15.29250E-06
-284.9494E-03,-15.34526E-06
-302.0408E-03,-15.36972E-06
-319.8690E-03,-15.39022E-06
-338.6398E-03,-15.42770E-06
-358.9475E-03,-15.42603E-06
-380.2207E-03,-15.43681E-06
-402.4419E-03,-15.43734E-06
-426.6797E-03,-15.44372E-06
-451.9313E-03,-15.47402E-06
-478.6306E-03,-15.49791E-06
-507.3120E-03,-15.48890E-06

MicroMag 2900/3900 Data File ends
